File,WaveData20240823_005.csv,
Date/Time,24-08-23/16:32,
,,
Center Wavelength,1550,nm
Span Wavelength,50,nm
Start Wavelength,1525,nm
Stop Wavelength,1575,nm
Value In Air/Vacuum,Air,
Optical Attenuater,On,
Resolution,0.2,nm
Actual Resolution,0.196,nm
VBW,1000,Hz
Point Average,Off,
Sweep Average,1,
Smooth,Off,
Sampling Points,501,pt
Trace Type,Write,
Trace Storage Mode,Off,
Trace Calculate Trace 1,-,
Trace Calculate Trace 2,-,
Dynamic Range,Normal,
Ext-Trigger,Off,
Interval Time,Off,
MM Mode,Off,
,,
Trace,A,
Start,1525,nm
Stop,1575,nm
Wavelength(A),Level(A),
1525,0.01862,
1525.1,0.0199,
1525.2,0.0212,
1525.3,0.02268,
1525.4,0.02426,
1525.5,0.02596,
1525.6,0.02778,
1525.7,0.02969,
1525.8,0.03177,
1525.9,0.03389,
1526,0.03626,
1526.1,0.03878,
1526.2,0.04145,
1526.3,0.04437,
1526.4,0.04749,
1526.5,0.05086,
1526.6,0.05436,
1526.7,0.05799,
1526.8,0.06205,
1526.9,0.06619,
1527,0.07084,
1527.1,0.07581,
1527.2,0.081,
1527.3,0.08659,
1527.4,0.09246,
1527.5,0.09857,
1527.6,0.1053,
1527.7,0.1122,
1527.8,0.1199,
1527.9,0.1279,
1528,0.1365,
1528.1,0.1459,
1528.2,0.1553,
1528.3,0.1657,
1528.4,0.1765,
1528.5,0.1878,
1528.6,0.2003,
1528.7,0.2132,
1528.8,0.2277,
1528.9,0.2423,
1529,0.2577,
1529.1,0.2744,
1529.2,0.2909,
1529.3,0.3096,
1529.4,0.3287,
1529.5,0.3485,
1529.6,0.369,
1529.7,0.3901,
1529.8,0.4125,
1529.9,0.4359,
1530,0.4589,
1530.1,0.4843,
1530.2,0.5097,
1530.3,0.537,
1530.4,0.5626,
1530.5,0.5884,
1530.6,0.616,
1530.7,0.6428,
1530.8,0.6715,
1530.9,0.7001,
1531,0.7278,
1531.1,0.7534,
1531.2,0.7766,
1531.3,0.7994,
1531.4,0.823,
1531.5,0.8437,
1531.6,0.8654,
1531.7,0.8845,
1531.8,0.902,
1531.9,0.9153,
1532,0.922,
1532.1,0.9279,
1532.2,0.933,
1532.3,0.9389,
1532.4,0.9407,
1532.5,0.9367,
1532.6,0.9309,
1532.7,0.9185,
1532.8,0.9011,
1532.9,0.8819,
1533,0.8603,
1533.1,0.8378,
1533.2,0.8155,
1533.3,0.7863,
1533.4,0.7549,
1533.5,0.7195,
1533.6,0.684,
1533.7,0.6488,
1533.8,0.6118,
1533.9,0.5773,
1534,0.5429,
1534.1,0.508,
1534.2,0.4734,
1534.3,0.4383,
1534.4,0.4056,
1534.5,0.3745,
1534.6,0.3442,
1534.7,0.3176,
1534.8,0.2916,
1534.9,0.2678,
1535,0.2453,
1535.1,0.224,
1535.2,0.2053,
1535.3,0.1869,
1535.4,0.171,
1535.5,0.1561,
1535.6,0.1428,
1535.7,0.131,
1535.8,0.1197,
1535.9,0.1095,
1536,0.1004,
1536.1,0.09184,
1536.2,0.08413,
1536.3,0.07756,
1536.4,0.07149,
1536.5,0.06597,
1536.6,0.06096,
1536.7,0.05653,
1536.8,0.0525,
1536.9,0.04873,
1537,0.04552,
1537.1,0.04252,
1537.2,0.03984,
1537.3,0.03752,
1537.4,0.03534,
1537.5,0.03349,
1537.6,0.0317,
1537.7,0.03011,
1537.8,0.02863,
1537.9,0.02729,
1538,0.02611,
1538.1,0.02499,
1538.2,0.02403,
1538.3,0.02317,
1538.4,0.02235,
1538.5,0.02159,
1538.6,0.02092,
1538.7,0.02024,
1538.8,0.01969,
1538.9,0.01914,
1539,0.01869,
1539.1,0.01823,
1539.2,0.01786,
1539.3,0.01754,
1539.4,0.01721,
1539.5,0.01688,
1539.6,0.01663,
1539.7,0.01634,
1539.8,0.01611,
1539.9,0.0159,
1540,0.01576,
1540.1,0.01561,
1540.2,0.01542,
1540.3,0.01534,
1540.4,0.01523,
1540.5,0.01506,
1540.6,0.015,
1540.7,0.01491,
1540.8,0.01487,
1540.9,0.01485,
1541,0.01482,
1541.1,0.01483,
1541.2,0.01481,
1541.3,0.01476,
1541.4,0.01475,
1541.5,0.01474,
1541.6,0.01478,
1541.7,0.01478,
1541.8,0.01484,
1541.9,0.01487,
1542,0.01492,
1542.1,0.01498,
1542.2,0.01501,
1542.3,0.01506,
1542.4,0.0151,
1542.5,0.01517,
1542.6,0.01524,
1542.7,0.01533,
1542.8,0.01542,
1542.9,0.01553,
1543,0.01559,
1543.1,0.01569,
1543.2,0.01575,
1543.3,0.01583,
1543.4,0.01593,
1543.5,0.01599,
1543.6,0.01612,
1543.7,0.01625,
1543.8,0.01633,
1543.9,0.01641,
1544,0.01648,
1544.1,0.0166,
1544.2,0.01672,
1544.3,0.01682,
1544.4,0.01697,
1544.5,0.01709,
1544.6,0.01718,
1544.7,0.01737,
1544.8,0.01744,
1544.9,0.01755,
1545,0.01763,
1545.1,0.01771,
1545.2,0.01789,
1545.3,0.018,
1545.4,0.01816,
1545.5,0.01825,
1545.6,0.01838,
1545.7,0.01851,
1545.8,0.01856,
1545.9,0.01871,
1546,0.01887,
1546.1,0.01893,
1546.2,0.01908,
1546.3,0.01924,
1546.4,0.01936,
1546.5,0.01949,
1546.6,0.01955,
1546.7,0.01963,
1546.8,0.01973,
1546.9,0.01981,
1547,0.01997,
1547.1,0.02007,
1547.2,0.02021,
1547.3,0.02034,
1547.4,0.02041,
1547.5,0.02051,
1547.6,0.02062,
1547.7,0.02067,
1547.8,0.02079,
1547.9,0.02086,
1548,0.021,
1548.1,0.0211,
1548.2,0.02118,
1548.3,0.0213,
1548.4,0.02137,
1548.5,0.02139,
1548.6,0.02147,
1548.7,0.0215,
1548.8,0.02161,
1548.9,0.02164,
1549,0.02175,
1549.1,0.02179,
1549.2,0.02184,
1549.3,0.02185,
1549.4,0.02187,
1549.5,0.02191,
1549.6,0.02196,
1549.7,0.02198,
1549.8,0.02201,
1549.9,0.02208,
1550,0.02205,
1550.1,0.02208,
1550.2,0.02206,
1550.3,0.02201,
1550.4,0.02205,
1550.5,0.02202,
1550.6,0.02198,
1550.7,0.022,
1550.8,0.02195,
1550.9,0.02198,
1551,0.02192,
1551.1,0.02184,
1551.2,0.02179,
1551.3,0.02171,
1551.4,0.02167,
1551.5,0.02162,
1551.6,0.02154,
1551.7,0.02154,
1551.8,0.02142,
1551.9,0.02132,
1552,0.02126,
1552.1,0.02112,
1552.2,0.02104,
1552.3,0.02093,
1552.4,0.0208,
1552.5,0.02073,
1552.6,0.02057,
1552.7,0.02048,
1552.8,0.02038,
1552.9,0.02024,
1553,0.02011,
1553.1,0.01995,
1553.2,0.01988,
1553.3,0.01975,
1553.4,0.01965,
1553.5,0.01956,
1553.6,0.01939,
1553.7,0.01928,
1553.8,0.01921,
1553.9,0.019,
1554,0.01891,
1554.1,0.01877,
1554.2,0.01863,
1554.3,0.01855,
1554.4,0.0184,
1554.5,0.01829,
1554.6,0.01819,
1554.7,0.01802,
1554.8,0.01793,
1554.9,0.01776,
1555,0.01763,
1555.1,0.01761,
1555.2,0.01743,
1555.3,0.0173,
1555.4,0.01717,
1555.5,0.01701,
1555.6,0.01694,
1555.7,0.01674,
1555.8,0.01661,
1555.9,0.01649,
1556,0.01636,
1556.1,0.01626,
1556.2,0.01612,
1556.3,0.01598,
1556.4,0.01585,
1556.5,0.01568,
1556.6,0.01557,
1556.7,0.01545,
1556.8,0.01533,
1556.9,0.01521,
1557,0.01504,
1557.1,0.01492,
1557.2,0.01475,
1557.3,0.01458,
1557.4,0.01443,
1557.5,0.01424,
1557.6,0.01409,
1557.7,0.01395,
1557.8,0.01376,
1557.9,0.01362,
1558,0.01344,
1558.1,0.01325,
1558.2,0.01309,
1558.3,0.01288,
1558.4,0.01274,
1558.5,0.01258,
1558.6,0.01239,
1558.7,0.01222,
1558.8,0.01203,
1558.9,0.01181,
1559,0.01166,
1559.1,0.01143,
1559.2,0.01124,
1559.3,0.01107,
1559.4,0.01086,
1559.5,0.01069,
1559.6,0.01048,
1559.7,0.01031,
1559.8,0.01011,
1559.9,0.00991,
1560,0.009759,
1560.1,0.009549,
1560.2,0.009356,
1560.3,0.00918,
1560.4,0.009021,
1560.5,0.00882,
1560.6,0.008635,
1560.7,0.008409,
1560.8,0.008263,
1560.9,0.008097,
1561,0.007891,
1561.1,0.00773,
1561.2,0.007548,
1561.3,0.007372,
1561.4,0.007202,
1561.5,0.007029,
1561.6,0.006876,
1561.7,0.006712,
1561.8,0.006527,
1561.9,0.006369,
1562,0.00621,
1562.1,0.006063,
1562.2,0.005926,
1562.3,0.005765,
1562.4,0.005633,
1562.5,0.005498,
1562.6,0.005349,
1562.7,0.005207,
1562.8,0.005051,
1562.9,0.004943,
1563,0.004811,
1563.1,0.004668,
1563.2,0.004554,
1563.3,0.004442,
1563.4,0.004309,
1563.5,0.004217,
1563.6,0.00409,
1563.7,0.003979,
1563.8,0.003875,
1563.9,0.003761,
1564,0.003677,
1564.1,0.003565,
1564.2,0.003459,
1564.3,0.00337,
1564.4,0.00327,
1564.5,0.003181,
1564.6,0.003096,
1564.7,0.002994,
1564.8,0.00292,
1564.9,0.002829,
1565,0.002745,
1565.1,0.002679,
1565.2,0.002603,
1565.3,0.00252,
1565.4,0.002454,
1565.5,0.002377,
1565.6,0.002317,
1565.7,0.002255,
1565.8,0.00219,
1565.9,0.002123,
1566,0.002069,
1566.1,0.002003,
1566.2,0.001954,
1566.3,0.001897,
1566.4,0.001845,
1566.5,0.001787,
1566.6,0.001737,
1566.7,0.001693,
1566.8,0.001638,
1566.9,0.001607,
1567,0.001552,
1567.1,0.001502,
1567.2,0.001463,
1567.3,0.001431,
1567.4,0.00139,
1567.5,0.001352,
1567.6,0.001314,
1567.7,0.001275,
1567.8,0.001247,
1567.9,0.001214,
1568,0.001179,
1568.1,0.001148,
1568.2,0.001111,
1568.3,0.001084,
1568.4,0.001053,
1568.5,0.001031,
1568.6,0.001007,
1568.7,0.0009776,
1568.8,0.0009538,
1568.9,0.0009301,
1569,0.0009089,
1569.1,0.000876,
1569.2,0.0008581,
1569.3,0.0008394,
1569.4,0.0008027,
1569.5,0.0007845,
1569.6,0.0007731,
1569.7,0.0007523,
1569.8,0.0007426,
1569.9,0.0007209,
1570,0.0007037,
1570.1,0.000679,
1570.2,0.0006621,
1570.3,0.0006375,
1570.4,0.000636,
1570.5,0.0006251,
1570.6,0.0005918,
1570.7,0.0005809,
1570.8,0.000581,
1570.9,0.0005589,
1571,0.0005505,
1571.1,0.0005387,
1571.2,0.0005208,
1571.3,0.0005089,
1571.4,0.0004987,
1571.5,0.0004946,
1571.6,0.0004879,
1571.7,0.0004726,
1571.8,0.000459,
1571.9,0.0004513,
1572,0.0004497,
1572.1,0.0004375,
1572.2,0.0004288,
1572.3,0.0004252,
1572.4,0.0003951,
1572.5,0.0003976,
1572.6,0.0003923,
1572.7,0.0003705,
1572.8,0.0003576,
1572.9,0.0003531,
1573,0.0003476,
1573.1,0.0003422,
1573.2,0.0003318,
1573.3,0.0003247,
1573.4,0.0003215,
1573.5,0.0003143,
1573.6,0.0003089,
1573.7,0.0002981,
1573.8,0.0002958,
1573.9,0.0002896,
1574,0.0002865,
1574.1,0.0002816,
1574.2,0.000273,
1574.3,0.0002669,
1574.4,0.0002631,
1574.5,0.0002595,
1574.6,0.0002532,
1574.7,0.0002532,
1574.8,0.0002449,
1574.9,0.0002433,
1575,0.0002376,
